'Ka_mean = f(Inu)',
"'Given are: number of blocks, block length, turbulence intensity'",
"'Umean / Vcrit, <Ka>'",
,
7,122
0,NaN
0.49061,0
0.50387,0
0.51713,0
0.53039,0
0.54365,0
0.55691,0
0.57017,0
0.58343,0
0.59669,0
0.60994,0
0.6232,0
0.63646,-0.0016914
0.64972,-0.00445
0.66298,-0.0086433
0.67624,-0.01293
0.6895,-0.017689
0.70276,-0.024921
0.71602,-0.030553
0.72928,-0.036495
0.74254,-0.043471
0.7558,-0.052154
0.76906,-0.06381
0.78232,-0.0778
0.79558,-0.086879
0.80884,-0.096168
0.8221,-0.11277
0.83536,-0.13047
0.84862,-0.14741
0.86188,-0.16601
0.87514,-0.19536
0.8884,-0.22532
0.90166,-0.25468
0.91492,-0.28885
0.92818,-0.28009
0.94144,-0.22336
0.9547,-0.097124
0.96796,0.060719
0.98122,0.30573
0.99448,0.76655
1.0077,0.97763
1.021,1.0017
1.0343,0.96534
1.0475,0.91396
1.0608,0.86895
1.074,0.82693
1.0873,0.78994
1.1006,0.74915
1.1138,0.72145
1.1271,0.69546
1.1403,0.66008
1.1536,0.6187
1.1669,0.59071
1.1801,0.56554
1.1934,0.53834
1.2066,0.50515
1.2199,0.47797
1.2331,0.45218
1.2464,0.4258
1.2597,0.40111
1.2729,0.38071
1.2862,0.34974
1.2994,0.32904
1.3127,0.30546
1.326,0.28587
1.3392,0.26169
1.3525,0.24319
1.3657,0.22595
1.379,0.20911
1.3923,0.19511
1.4055,0.17882
1.4188,0.16452
1.432,0.14864
1.4453,0.13859
1.4586,0.12609
1.4718,0.11345
1.4851,0.1038
1.4983,0.091704
1.5116,0.082604
1.5249,0.073809
1.5381,0.060471
1.5514,0.044133
1.5646,0.034483
1.5779,0.026243
1.5912,0.017144
1.6044,0.0043194
1.6177,-0.0083871
1.6309,-0.016723
1.6442,-0.024258
1.6575,-0.031381
1.6707,-0.039101
1.684,-0.046957
1.6972,-0.054784
1.7105,-0.062609
1.7238,-0.070406
1.737,-0.07834
1.7503,-0.086871
1.7635,-0.094899
1.7768,-0.10246
1.7901,-0.10779
1.8033,-0.11324
1.8166,-0.12177
1.8298,-0.13018
1.8431,-0.13484
1.8564,-0.13931
1.8696,-0.14592
1.8829,-0.15228
1.8961,-0.15911
1.9094,-0.16514
1.9227,-0.16959
1.9359,-0.17396
1.9492,-0.1791
1.9624,-0.18435
1.9757,-0.18957
1.989,-0.19478
2.0022,-0.20003
2.0155,-0.20516
2.0287,-0.20959
2.042,-0.21391
2.0552,-0.21826
2.0685,-0.22261
2.0818,-0.22698
2.095,-0.23125
0.025,NaN
0.49061,-1.43E-34
0.50387,-6.18E-28
0.51713,-2.18E-22
0.53039,-8.55E-18
0.54365,-4.92E-14
0.55691,-5.26E-11
0.57017,-1.29E-08
0.58343,-8.79E-07
0.59669,-2.01E-05
0.60994,-0.00018814
0.6232,-0.0008815
0.63646,-0.0025373
0.64972,-0.0053007
0.66298,-0.009015
0.67624,-0.013512
0.6895,-0.018761
0.70276,-0.024597
0.71602,-0.030776
0.72928,-0.03745
0.74254,-0.045159
0.7558,-0.054358
0.76906,-0.064888
0.78232,-0.076081
0.79558,-0.087716
0.80884,-0.10047
0.8221,-0.1151
0.83536,-0.13187
0.84862,-0.15107
0.86188,-0.1732
0.87514,-0.1979
0.8884,-0.2224
0.90166,-0.24006
0.91492,-0.23995
0.92818,-0.20864
0.94144,-0.13333
0.9547,-0.004999
0.96796,0.17567
0.98122,0.38956
0.99448,0.59877
1.0077,0.76322
1.021,0.86186
1.0343,0.89904
1.0475,0.89394
1.0608,0.86668
1.074,0.83102
1.0873,0.79399
1.1006,0.75819
1.1138,0.72395
1.1271,0.69078
1.1403,0.65831
1.1536,0.62655
1.1669,0.59571
1.1801,0.56583
1.1934,0.53681
1.2066,0.50855
1.2199,0.48105
1.2331,0.45433
1.2464,0.42837
1.2597,0.40312
1.2729,0.37849
1.2862,0.35451
1.2994,0.33125
1.3127,0.30884
1.326,0.2874
1.3392,0.26704
1.3525,0.24782
1.3657,0.22972
1.379,0.21267
1.3923,0.19658
1.4055,0.18135
1.4188,0.1669
1.432,0.1532
1.4453,0.14019
1.4586,0.12778
1.4718,0.11588
1.4851,0.10433
1.4983,0.092992
1.5116,0.081745
1.5249,0.070518
1.5381,0.059314
1.5514,0.048183
1.5646,0.037203
1.5779,0.026445
1.5912,0.015978
1.6044,0.0058633
1.6177,-0.0038493
1.6309,-0.013136
1.6442,-0.022013
1.6575,-0.030536
1.6707,-0.038785
1.684,-0.046845
1.6972,-0.054781
1.7105,-0.06263
1.7238,-0.070397
1.737,-0.078065
1.7503,-0.085605
1.7635,-0.09299
1.7768,-0.1002
1.7901,-0.10722
1.8033,-0.11407
1.8166,-0.12073
1.8298,-0.12723
1.8431,-0.13356
1.8564,-0.13974
1.8696,-0.14578
1.8829,-0.15166
1.8961,-0.15741
1.9094,-0.163
1.9227,-0.16847
1.9359,-0.17382
1.9492,-0.17906
1.9624,-0.1842
1.9757,-0.18926
1.989,-0.19423
2.0022,-0.1991
2.0155,-0.20386
2.0287,-0.20851
2.042,-0.21303
2.0552,-0.21743
2.0685,-0.22168
2.0818,-0.22581
2.095,-0.22979
0.05,NaN
0.49061,-8.41E-12
0.50387,-3.96E-10
0.51713,-1.02E-08
0.53039,-1.56E-07
0.54365,-1.52E-06
0.55691,-1.01E-05
0.57017,-4.88E-05
0.58343,-0.00017816
0.59669,-0.00051596
0.60994,-0.0012327
0.6232,-0.0025145
0.63646,-0.0045119
0.64972,-0.0073058
0.66298,-0.010905
0.67624,-0.015272
0.6895,-0.020362
0.70276,-0.026164
0.71602,-0.032717
0.72928,-0.040096
0.74254,-0.048378
0.7558,-0.05763
0.76906,-0.067918
0.78232,-0.079342
0.79558,-0.092041
0.80884,-0.10615
0.8221,-0.12166
0.83536,-0.13817
0.84862,-0.15457
0.86188,-0.16863
0.87514,-0.17685
0.8884,-0.17454
0.90166,-0.15642
0.91492,-0.11772
0.92818,-0.055583
0.94144,0.029761
0.9547,0.13439
0.96796,0.25106
0.98122,0.37054
0.99448,0.48338
1.0077,0.58164
1.021,0.66012
1.0343,0.71666
1.0475,0.75183
1.0608,0.76817
1.074,0.76919
1.0873,0.75866
1.1006,0.73999
1.1138,0.716
1.1271,0.68881
1.1403,0.65993
1.1536,0.63035
1.1669,0.60072
1.1801,0.5714
1.1934,0.54262
1.2066,0.5145
1.2199,0.48709
1.2331,0.46042
1.2464,0.43452
1.2597,0.40941
1.2729,0.3851
1.2862,0.36162
1.2994,0.33899
1.3127,0.31723
1.326,0.29637
1.3392,0.27641
1.3525,0.25735
1.3657,0.23917
1.379,0.22186
1.3923,0.20536
1.4055,0.18963
1.4188,0.17462
1.432,0.16026
1.4453,0.14649
1.4586,0.13323
1.4718,0.12044
1.4851,0.10805
1.4983,0.096016
1.5116,0.084305
1.5249,0.072888
1.5381,0.061748
1.5514,0.050873
1.5646,0.040259
1.5779,0.029905
1.5912,0.01981
1.6044,0.0099746
1.6177,0.00039529
1.6309,-0.0089323
1.6442,-0.018015
1.6575,-0.026862
1.6707,-0.035484
1.684,-0.04389
1.6972,-0.052093
1.7105,-0.060101
1.7238,-0.067922
1.737,-0.075565
1.7503,-0.083034
1.7635,-0.090336
1.7768,-0.097473
1.7901,-0.10445
1.8033,-0.11127
1.8166,-0.11793
1.8298,-0.12444
1.8431,-0.1308
1.8564,-0.13702
1.8696,-0.14309
1.8829,-0.14903
1.8961,-0.15482
1.9094,-0.16049
1.9227,-0.16603
1.9359,-0.17144
1.9492,-0.17672
1.9624,-0.18188
1.9757,-0.18692
1.989,-0.19184
2.0022,-0.19663
2.0155,-0.20131
2.0287,-0.20585
2.042,-0.21027
2.0552,-0.21457
2.0685,-0.21873
2.0818,-0.22277
2.095,-0.22667
0.1,NaN
0.49061,-8.60E-06
0.50387,-2.66E-05
0.51713,-7.16E-05
0.53039,-0.00017001
0.54365,-0.00036284
0.55691,-0.00070604
0.57017,-0.0012684
0.58343,-0.0021271
0.59669,-0.0033616
0.60994,-0.005049
0.6232,-0.0072599
0.63646,-0.010058
0.64972,-0.013499
0.66298,-0.017635
0.67624,-0.022512
0.6895,-0.028172
0.70276,-0.03464
0.71602,-0.041913
0.72928,-0.049929
0.74254,-0.058531
0.7558,-0.067421
0.76906,-0.076126
0.78232,-0.083967
0.79558,-0.090069
0.80884,-0.093392
0.8221,-0.092817
0.83536,-0.087245
0.84862,-0.075725
0.86188,-0.05757
0.87514,-0.032456
0.8884,-0.00047631
0.90166,0.037847
0.91492,0.0816
0.92818,0.12955
0.94144,0.18024
0.9547,0.23213
0.96796,0.28367
0.98122,0.33341
0.99448,0.38011
1.0077,0.42272
1.021,0.46047
1.0343,0.49285
1.0475,0.51959
1.0608,0.54063
1.074,0.55611
1.0873,0.56628
1.1006,0.57153
1.1138,0.5723
1.1271,0.56908
1.1403,0.56237
1.1536,0.55266
1.1669,0.54043
1.1801,0.52612
1.1934,0.51015
1.2066,0.49286
1.2199,0.4746
1.2331,0.45563
1.2464,0.43621
1.2597,0.41654
1.2729,0.39679
1.2862,0.37711
1.2994,0.35761
1.3127,0.33838
1.326,0.3195
1.3392,0.30102
1.3525,0.28298
1.3657,0.26541
1.379,0.24832
1.3923,0.23173
1.4055,0.21563
1.4188,0.20001
1.432,0.18488
1.4453,0.17022
1.4586,0.15602
1.4718,0.14225
1.4851,0.12892
1.4983,0.11599
1.5116,0.10345
1.5249,0.091296
1.5381,0.079497
1.5514,0.068044
1.5646,0.056921
1.5779,0.046115
1.5912,0.03561
1.6044,0.025396
1.6177,0.01546
1.6309,0.0057899
1.6442,-0.0036237
1.6575,-0.012791
1.6707,-0.021721
1.684,-0.030424
1.6972,-0.038906
1.7105,-0.047175
1.7238,-0.055239
1.737,-0.063103
1.7503,-0.070775
1.7635,-0.078259
1.7768,-0.085562
1.7901,-0.092687
1.8033,-0.099639
1.8166,-0.10642
1.8298,-0.11304
1.8431,-0.1195
1.8564,-0.1258
1.8696,-0.13195
1.8829,-0.13794
1.8961,-0.14379
1.9094,-0.14948
1.9227,-0.15504
1.9359,-0.16045
1.9492,-0.16572
1.9624,-0.17086
1.9757,-0.17585
1.989,-0.18072
2.0022,-0.18545
2.0155,-0.19006
2.0287,-0.19453
2.042,-0.19888
2.0552,-0.20311
2.0685,-0.20722
2.0818,-0.21121
2.095,-0.21509
0.2,NaN
0.49061,-0.0011829
0.50387,-0.0018099
0.51713,-0.0026656
0.53039,-0.0037943
0.54365,-0.005237
0.55691,-0.0070258
0.57017,-0.009177
0.58343,-0.011683
0.59669,-0.014505
0.60994,-0.017563
0.6232,-0.020734
0.63646,-0.023851
0.64972,-0.026702
0.66298,-0.029044
0.67624,-0.030612
0.6895,-0.031134
0.70276,-0.030351
0.71602,-0.02803
0.72928,-0.023978
0.74254,-0.018057
0.7558,-0.010189
0.76906,-0.00036093
0.78232,0.011379
0.79558,0.02492
0.80884,0.040102
0.8221,0.05672
0.83536,0.074534
0.84862,0.093284
0.86188,0.1127
0.87514,0.13249
0.8884,0.1524
0.90166,0.17217
0.91492,0.19155
0.92818,0.21033
0.94144,0.22831
0.9547,0.24533
0.96796,0.26126
0.98122,0.27598
0.99448,0.2894
1.0077,0.30148
1.021,0.31216
1.0343,0.32145
1.0475,0.32933
1.0608,0.33582
1.074,0.34097
1.0873,0.34479
1.1006,0.34736
1.1138,0.34873
1.1271,0.34895
1.1403,0.34809
1.1536,0.34624
1.1669,0.34344
1.1801,0.33978
1.1934,0.33532
1.2066,0.33014
1.2199,0.32429
1.2331,0.31784
1.2464,0.31085
1.2597,0.30338
1.2729,0.29548
1.2862,0.28721
1.2994,0.27861
1.3127,0.26972
1.326,0.2606
1.3392,0.25127
1.3525,0.24178
1.3657,0.23216
1.379,0.22243
1.3923,0.21263
1.4055,0.20277
1.4188,0.19289
1.432,0.183
1.4453,0.17312
1.4586,0.16328
1.4718,0.15347
1.4851,0.14373
1.4983,0.13405
1.5116,0.12445
1.5249,0.11495
1.5381,0.10554
1.5514,0.096243
1.5646,0.087056
1.5779,0.077987
1.5912,0.069042
1.6044,0.060224
1.6177,0.051537
1.6309,0.042985
1.6442,0.034568
1.6575,0.02629
1.6707,0.018151
1.684,0.010152
1.6972,0.0022955
1.7105,-0.0054198
1.7238,-0.012994
1.737,-0.020426
1.7503,-0.027718
1.7635,-0.034869
1.7768,-0.041882
1.7901,-0.048756
1.8033,-0.055494
1.8166,-0.062097
1.8298,-0.068566
1.8431,-0.074903
1.8564,-0.081111
1.8696,-0.08719
1.8829,-0.093143
1.8961,-0.098972
1.9094,-0.10468
1.9227,-0.11027
1.9359,-0.11574
1.9492,-0.12109
1.9624,-0.12633
1.9757,-0.13147
1.989,-0.13649
2.0022,-0.14141
2.0155,-0.14622
2.0287,-0.15094
2.042,-0.15556
2.0552,-0.16008
2.0685,-0.1645
2.0818,-0.16884
2.095,-0.17308
0.3,NaN
0.49061,-0.005744
0.50387,-0.0072217
0.51713,-0.0087881
0.53039,-0.010352
0.54365,-0.011798
0.55691,-0.012991
0.57017,-0.013785
0.58343,-0.014033
0.59669,-0.013591
0.60994,-0.012333
0.6232,-0.010151
0.63646,-0.0069679
0.64972,-0.0027336
0.66298,0.0025688
0.67624,0.0089254
0.6895,0.016294
0.70276,0.024606
0.71602,0.033772
0.72928,0.043684
0.74254,0.054225
0.7558,0.065266
0.76906,0.076678
0.78232,0.088329
0.79558,0.10009
0.80884,0.11184
0.8221,0.12347
0.83536,0.13487
0.84862,0.14595
0.86188,0.15662
0.87514,0.16681
0.8884,0.17646
0.90166,0.18552
0.91492,0.19395
0.92818,0.20171
0.94144,0.2088
0.9547,0.21519
0.96796,0.22088
0.98122,0.22586
0.99448,0.23015
1.0077,0.23374
1.021,0.23667
1.0343,0.23894
1.0475,0.24058
1.0608,0.24161
1.074,0.24205
1.0873,0.24193
1.1006,0.24128
1.1138,0.24013
1.1271,0.23849
1.1403,0.23641
1.1536,0.2339
1.1669,0.231
1.1801,0.22773
1.1934,0.22412
1.2066,0.22019
1.2199,0.21596
1.2331,0.21147
1.2464,0.20673
1.2597,0.20176
1.2729,0.19659
1.2862,0.19124
1.2994,0.18572
1.3127,0.18005
1.326,0.17424
1.3392,0.16832
1.3525,0.1623
1.3657,0.15619
1.379,0.15
1.3923,0.14375
1.4055,0.13745
1.4188,0.13111
1.432,0.12474
1.4453,0.11835
1.4586,0.11195
1.4718,0.10554
1.4851,0.099135
1.4983,0.092739
1.5116,0.08636
1.5249,0.080003
1.5381,0.073673
1.5514,0.067375
1.5646,0.061113
1.5779,0.054893
1.5912,0.048716
1.6044,0.042588
1.6177,0.036509
1.6309,0.030485
1.6442,0.024515
1.6575,0.018604
1.6707,0.012752
1.684,0.0069612
1.6972,0.001233
1.7105,-0.0044315
1.7238,-0.010031
1.737,-0.015566
1.7503,-0.021034
1.7635,-0.026435
1.7768,-0.03177
1.7901,-0.037037
1.8033,-0.042237
1.8166,-0.04737
1.8298,-0.052435
1.8431,-0.057434
1.8564,-0.062365
1.8696,-0.06723
1.8829,-0.072029
1.8961,-0.076763
1.9094,-0.081431
1.9227,-0.086034
1.9359,-0.090573
1.9492,-0.095049
1.9624,-0.099462
1.9757,-0.10381
1.989,-0.1081
2.0022,-0.11233
2.0155,-0.1165
2.0287,-0.1206
2.042,-0.12465
2.0552,-0.12864
2.0685,-0.13257
2.0818,-0.13645
2.095,-0.14026
0.4,NaN
0.49061,-0.007949
0.50387,-0.007982
0.51713,-0.0074927
0.53039,-0.0063851
0.54365,-0.0045821
0.55691,-0.0020286
0.57017,0.0013056
0.58343,0.0054266
0.59669,0.010317
0.60994,0.015938
0.6232,0.022233
0.63646,0.029131
0.64972,0.036551
0.66298,0.044402
0.67624,0.052592
0.6895,0.061026
0.70276,0.069611
0.71602,0.078257
0.72928,0.086879
0.74254,0.0954
0.7558,0.10375
0.76906,0.11186
0.78232,0.11967
0.79558,0.12715
0.80884,0.13424
0.8221,0.14092
0.83536,0.14715
0.84862,0.15292
0.86188,0.15821
0.87514,0.16302
0.8884,0.16733
0.90166,0.17116
0.91492,0.17449
0.92818,0.17734
0.94144,0.17972
0.9547,0.18163
0.96796,0.18309
0.98122,0.18412
0.99448,0.18473
1.0077,0.18494
1.021,0.18476
1.0343,0.18421
1.0475,0.18331
1.0608,0.18208
1.074,0.18053
1.0873,0.17869
1.1006,0.17657
1.1138,0.17419
1.1271,0.17157
1.1403,0.16872
1.1536,0.16565
1.1669,0.16239
1.1801,0.15894
1.1934,0.15533
1.2066,0.15156
1.2199,0.14766
1.2331,0.14362
1.2464,0.13946
1.2597,0.1352
1.2729,0.13084
1.2862,0.1264
1.2994,0.12188
1.3127,0.11729
1.326,0.11264
1.3392,0.10795
1.3525,0.10321
1.3657,0.098429
1.379,0.093622
1.3923,0.08879
1.4055,0.083941
1.4188,0.079079
1.432,0.074209
1.4453,0.069335
1.4586,0.064463
1.4718,0.059596
1.4851,0.054737
1.4983,0.04989
1.5116,0.045059
1.5249,0.040245
1.5381,0.035453
1.5514,0.030684
1.5646,0.02594
1.5779,0.021224
1.5912,0.016538
1.6044,0.011882
1.6177,0.0072601
1.6309,0.0026722
1.6442,-0.0018799
1.6575,-0.0063951
1.6707,-0.010872
1.684,-0.01531
1.6972,-0.019708
1.7105,-0.024065
1.7238,-0.028381
1.737,-0.032654
1.7503,-0.036884
1.7635,-0.04107
1.7768,-0.045213
1.7901,-0.049311
1.8033,-0.053364
1.8166,-0.057371
1.8298,-0.061333
1.8431,-0.065249
1.8564,-0.069118
1.8696,-0.072941
1.8829,-0.076718
1.8961,-0.080447
1.9094,-0.08413
1.9227,-0.087765
1.9359,-0.091353
1.9492,-0.094894
1.9624,-0.098387
1.9757,-0.10183
1.989,-0.10523
2.0022,-0.10858
2.0155,-0.11189
2.0287,-0.11515
2.042,-0.11836
2.0552,-0.12152
2.0685,-0.12464
2.0818,-0.12771
2.095,-0.13073
